# File Format = ASCII
# Save As: C:\Omicron\data\sample\2009 05 26 ALD6\Pictures\8cycle_Abbott_prf.asc
# Original file: c:\omicron\data\sample\2009 05 26 ald6\next day\next 8cy\m3_ori.tb0_Abbott.prf
# Curve plot created by SPIP V.3.3.9.0
# 13:52
# points   = 500
# X-Axis: Bearing area[%]; Y-Axis: Height [nm]
# length = 100
# offset = 0
# Start of Data:
# x-phys	 y-val
#------------------------------
       0	 1.47202	
0.200401	 1.46907	
0.400802	 1.15932	
0.601202	 1.10623	
0.801603	 1.07968	
   1.002	 1.06198	
  1.2024	 1.04428	
 1.40281	 1.03248	
 1.60321	 1.02068	
 1.80361	 1.00888	
 2.00401	 1.00003	
 2.20441	0.991178	
 2.40481	0.982328	
 2.60521	0.976428	
 2.80561	0.970528	
 3.00601	0.964629	
 3.20641	0.958729	
 3.40681	0.952829	
 3.60721	0.946929	
 3.80762	0.943979	
 4.00802	0.941029	
 4.20842	0.935129	
 4.40882	0.932179	
 4.60922	0.926279	
 4.80962	 0.92333	
 5.01002	 0.92038	
 5.21042	 0.91448	
 5.41082	 0.91153	
 5.61122	 0.90858	
 5.81162	 0.90563	
 6.01202	 0.90268	
 6.21242	 0.89973	
 6.41283	 0.89383	
 6.61323	 0.89088	
 6.81363	 0.88793	
 7.01403	 0.88498	
 7.21443	 0.88203	
 7.41483	 0.88203	
 7.61523	 0.87908	
 7.81563	0.876131	
 8.01603	0.873181	
 8.21643	0.870231	
 8.41683	0.867281	
 8.61723	0.864331	
 8.81764	0.861381	
 9.01804	0.861381	
 9.21844	0.858431	
 9.41884	0.855481	
 9.61924	0.852531	
 9.81964	0.849581	
   10.02	0.849581	
 10.2204	0.846631	
 10.4208	0.843681	
 10.6212	0.840731	
 10.8216	0.840731	
  11.022	0.837781	
 11.2224	0.834831	
 11.4228	0.834831	
 11.6232	0.831882	
 11.8236	0.828932	
  12.024	0.828932	
 12.2244	0.825982	
 12.4248	0.823032	
 12.6253	0.823032	
 12.8257	0.820082	
 13.0261	0.817132	
 13.2265	0.817132	
 13.4269	0.814182	
 13.6273	0.811232	
 13.8277	0.811232	
 14.0281	0.808282	
 14.2285	0.808282	
 14.4289	0.805332	
 14.6293	0.802382	
 14.8297	0.802382	
 15.0301	0.799432	
 15.2305	0.799432	
 15.4309	0.796482	
 15.6313	0.796482	
 15.8317	0.793532	
 16.0321	0.793532	
 16.2325	0.790582	
 16.4329	0.790582	
 16.6333	0.787633	
 16.8337	0.784683	
 17.0341	0.784683	
 17.2345	0.781733	
 17.4349	0.781733	
 17.6353	0.778783	
 17.8357	0.778783	
 18.0361	0.775833	
 18.2365	0.775833	
 18.4369	0.772883	
 18.6373	0.772883	
 18.8377	0.769933	
 19.0381	0.769933	
 19.2385	0.766983	
 19.4389	0.766983	
 19.6393	0.764033	
 19.8397	0.764033	
 20.0401	0.761083	
 20.2405	0.761083	
 20.4409	0.758133	
 20.6413	0.758133	
 20.8417	0.755183	
 21.0421	0.755183	
 21.2425	0.752233	
 21.4429	0.752233	
 21.6433	0.749283	
 21.8437	0.749283	
 22.0441	0.746333	
 22.2445	0.746333	
 22.4449	0.746333	
 22.6453	0.743384	
 22.8457	0.743384	
 23.0461	0.740434	
 23.2465	0.740434	
 23.4469	0.737484	
 23.6473	0.737484	
 23.8477	0.737484	
 24.0481	0.734534	
 24.2485	0.734534	
 24.4489	0.731584	
 24.6493	0.731584	
 24.8497	0.728634	
 25.0501	0.728634	
 25.2505	0.728634	
 25.4509	0.725684	
 25.6513	0.725684	
 25.8517	0.722734	
 26.0521	0.722734	
 26.2525	0.722734	
 26.4529	0.719784	
 26.6533	0.719784	
 26.8537	0.716834	
 27.0541	0.716834	
 27.2545	0.716834	
 27.4549	0.713884	
 27.6553	0.713884	
 27.8557	0.710934	
 28.0561	0.710934	
 28.2565	0.710934	
 28.4569	0.707984	
 28.6573	0.707984	
 28.8577	0.705034	
 29.0581	0.705034	
 29.2585	0.702084	
 29.4589	0.702084	
 29.6593	0.702084	
 29.8597	0.699134	
 30.0601	0.699134	
 30.2605	0.696185	
 30.4609	0.696185	
 30.6613	0.696185	
 30.8617	0.693235	
 31.0621	0.693235	
 31.2625	0.690285	
 31.4629	0.690285	
 31.6633	0.690285	
 31.8637	0.687335	
 32.0641	0.687335	
 32.2645	0.684385	
 32.4649	0.684385	
 32.6653	0.684385	
 32.8657	0.681435	
 33.0661	0.681435	
 33.2665	0.681435	
 33.4669	0.678485	
 33.6673	0.678485	
 33.8677	0.675535	
 34.0681	0.675535	
 34.2685	0.675535	
 34.4689	0.672585	
 34.6693	0.672585	
 34.8697	0.669635	
 35.0701	0.669635	
 35.2705	0.669635	
 35.4709	0.666685	
 35.6713	0.666685	
 35.8717	0.666685	
 36.0721	0.663735	
 36.2725	0.663735	
 36.4729	0.663735	
 36.6733	0.660785	
 36.8737	0.660785	
 37.0741	0.657835	
 37.2745	0.657835	
 37.4749	0.657835	
 37.6754	0.654885	
 37.8758	0.654885	
 38.0762	0.654885	
 38.2766	0.651936	
  38.477	0.651936	
 38.6774	0.651936	
 38.8778	0.648986	
 39.0782	0.648986	
 39.2786	0.648986	
  39.479	0.646036	
 39.6794	0.646036	
 39.8798	0.643086	
 40.0802	0.643086	
 40.2806	0.643086	
  40.481	0.643086	
 40.6814	0.640136	
 40.8818	0.640136	
 41.0822	0.637186	
 41.2826	0.637186	
  41.483	0.637186	
 41.6834	0.634236	
 41.8838	0.634236	
 42.0842	0.634236	
 42.2846	0.631286	
  42.485	0.631286	
 42.6854	0.631286	
 42.8858	0.628336	
 43.0862	0.628336	
 43.2866	0.625386	
  43.487	0.625386	
 43.6874	0.625386	
 43.8878	0.622436	
 44.0882	0.622436	
 44.2886	0.622436	
  44.489	0.619486	
 44.6894	0.619486	
 44.8898	0.619486	
 45.0902	0.616536	
 45.2906	0.616536	
  45.491	0.616536	
 45.6914	0.613586	
 45.8918	0.613586	
 46.0922	0.613586	
 46.2926	0.610636	
  46.493	0.610636	
 46.6934	0.607687	
 46.8938	0.607687	
 47.0942	0.607687	
 47.2946	0.604737	
  47.495	0.604737	
 47.6954	0.604737	
 47.8958	0.601787	
 48.0962	0.601787	
 48.2966	0.601787	
  48.497	0.598837	
 48.6974	0.598837	
 48.8978	0.598837	
 49.0982	0.595887	
 49.2986	0.595887	
  49.499	0.595887	
 49.6994	0.592937	
 49.8998	0.592937	
 50.1002	0.592937	
 50.3006	0.589987	
  50.501	0.589987	
 50.7014	0.587037	
 50.9018	0.587037	
 51.1022	0.587037	
 51.3026	0.584087	
  51.503	0.584087	
 51.7034	0.584087	
 51.9038	0.581137	
 52.1042	0.581137	
 52.3046	0.581137	
  52.505	0.578187	
 52.7054	0.578187	
 52.9058	0.578187	
 53.1062	0.575237	
 53.3066	0.575237	
  53.507	0.575237	
 53.7074	0.572287	
 53.9078	0.572287	
 54.1082	0.572287	
 54.3086	0.569337	
  54.509	0.569337	
 54.7094	0.569337	
 54.9098	0.566387	
 55.1102	0.566387	
 55.3106	0.566387	
  55.511	0.563438	
 55.7114	0.563438	
 55.9118	0.563438	
 56.1122	0.560488	
 56.3126	0.560488	
  56.513	0.560488	
 56.7134	0.557538	
 56.9138	0.557538	
 57.1142	0.557538	
 57.3146	0.554588	
  57.515	0.554588	
 57.7154	0.554588	
 57.9158	0.551638	
 58.1162	0.551638	
 58.3166	0.551638	
  58.517	0.548688	
 58.7174	0.548688	
 58.9178	0.548688	
 59.1182	0.545738	
 59.3186	0.545738	
  59.519	0.545738	
 59.7194	0.542788	
 59.9198	0.542788	
 60.1202	0.542788	
 60.3206	0.539838	
  60.521	0.539838	
 60.7214	0.539838	
 60.9218	0.536888	
 61.1222	0.536888	
 61.3226	0.536888	
  61.523	0.533938	
 61.7234	0.533938	
 61.9238	0.533938	
 62.1242	0.530988	
 62.3246	0.530988	
 62.5251	0.530988	
 62.7255	0.528038	
 62.9259	0.528038	
 63.1263	0.528038	
 63.3267	0.528038	
 63.5271	0.525088	
 63.7275	0.525088	
 63.9279	0.525088	
 64.1283	0.522138	
 64.3287	0.522138	
 64.5291	0.522138	
 64.7295	0.519188	
 64.9299	0.519188	
 65.1303	0.519188	
 65.3307	0.516239	
 65.5311	0.516239	
 65.7315	0.513289	
 65.9319	0.513289	
 66.1323	0.513289	
 66.3327	0.513289	
 66.5331	0.510339	
 66.7335	0.510339	
 66.9339	0.510339	
 67.1343	0.507389	
 67.3347	0.507389	
 67.5351	0.504439	
 67.7355	0.504439	
 67.9359	0.504439	
 68.1363	0.501489	
 68.3367	0.501489	
 68.5371	0.501489	
 68.7375	0.498539	
 68.9379	0.498539	
 69.1383	0.498539	
 69.3387	0.495589	
 69.5391	0.495589	
 69.7395	0.495589	
 69.9399	0.492639	
 70.1403	0.492639	
 70.3407	0.492639	
 70.5411	0.489689	
 70.7415	0.489689	
 70.9419	0.489689	
 71.1423	0.486739	
 71.3427	0.486739	
 71.5431	0.483789	
 71.7435	0.483789	
 71.9439	0.483789	
 72.1443	0.480839	
 72.3447	0.480839	
 72.5451	0.480839	
 72.7455	0.477889	
 72.9459	0.477889	
 73.1463	0.477889	
 73.3467	0.474939	
 73.5471	0.474939	
 73.7475	 0.47199	
 73.9479	 0.47199	
 74.1483	 0.47199	
 74.3487	 0.46904	
 74.5491	 0.46904	
 74.7495	 0.46904	
 74.9499	 0.46609	
 75.1503	 0.46609	
 75.3507	 0.46609	
 75.5511	 0.46314	
 75.7515	 0.46314	
 75.9519	 0.46314	
 76.1523	 0.46019	
 76.3527	 0.46019	
 76.5531	 0.46019	
 76.7535	 0.45724	
 76.9539	 0.45724	
 77.1543	 0.45429	
 77.3547	 0.45429	
 77.5551	 0.45429	
 77.7555	 0.45134	
 77.9559	 0.45134	
 78.1563	 0.45134	
 78.3567	 0.44839	
 78.5571	 0.44839	
 78.7575	 0.44544	
 78.9579	 0.44544	
 79.1583	 0.44544	
 79.3587	 0.44249	
 79.5591	 0.44249	
 79.7595	 0.44249	
 79.9599	 0.43954	
 80.1603	 0.43954	
 80.3607	 0.43954	
 80.5611	 0.43659	
 80.7615	 0.43659	
 80.9619	 0.43364	
 81.1623	 0.43364	
 81.3627	 0.43364	
 81.5631	 0.43069	
 81.7635	 0.43069	
 81.9639	 0.43069	
 82.1643	0.427741	
 82.3647	0.427741	
 82.5651	0.424791	
 82.7655	0.424791	
 82.9659	0.424791	
 83.1663	0.421841	
 83.3667	0.421841	
 83.5671	0.418891	
 83.7675	0.418891	
 83.9679	0.415941	
 84.1683	0.415941	
 84.3687	0.415941	
 84.5691	0.412991	
 84.7695	0.412991	
 84.9699	0.410041	
 85.1703	0.410041	
 85.3707	0.407091	
 85.5711	0.407091	
 85.7715	0.404141	
 85.9719	0.404141	
 86.1723	0.404141	
 86.3727	0.401191	
 86.5731	0.401191	
 86.7735	0.398241	
 86.9739	0.398241	
 87.1743	0.395291	
 87.3747	0.395291	
 87.5752	0.392341	
 87.7756	0.392341	
  87.976	0.389391	
 88.1764	0.389391	
 88.3768	0.386441	
 88.5772	0.386441	
 88.7776	0.383491	
  88.978	0.383491	
 89.1784	0.380542	
 89.3788	0.380542	
 89.5792	0.377592	
 89.7796	0.377592	
   89.98	0.374642	
 90.1804	0.374642	
 90.3808	0.371692	
 90.5812	0.371692	
 90.7816	0.368742	
  90.982	0.365792	
 91.1824	0.365792	
 91.3828	0.362842	
 91.5832	0.362842	
 91.7836	0.359892	
  91.984	0.356942	
 92.1844	0.356942	
 92.3848	0.353992	
 92.5852	0.351042	
 92.7856	0.348092	
  92.986	0.348092	
 93.1864	0.345142	
 93.3868	0.345142	
 93.5872	0.342192	
 93.7876	0.339242	
  93.988	0.336293	
 94.1884	0.336293	
 94.3888	0.333343	
 94.5892	0.330393	
 94.7896	0.327443	
   94.99	0.324493	
 95.1904	0.324493	
 95.3908	0.321543	
 95.5912	0.318593	
 95.7916	0.315643	
  95.992	0.312693	
 96.1924	0.309743	
 96.3928	0.306793	
 96.5932	0.300893	
 96.7936	0.297943	
  96.994	0.294993	
 97.1944	0.292044	
 97.3948	0.286144	
 97.5952	0.283194	
 97.7956	0.277294	
  97.996	0.271394	
 98.1964	0.265494	
 98.3968	0.262544	
 98.5972	0.256644	
 98.7976	0.250744	
  98.998	0.241895	
 99.1984	0.233045	
 99.3988	0.224195	
 99.5992	0.209445	
 99.7996	0.194696	
     100	       0	
