# File Format = ASCII
# Save As: C:\Omicron\data\sample\2009 05 26 ALD6\Pictures\chemicalO_Abbott_prf.asc
# Original file: c:\omicron\data\sample\2009 06 03 ncafm on chemical oxide\s3\m1_ori.tb0_Abbott.prf
# Curve plot created by SPIP V.3.3.9.0
# 17:0
# points   = 500
# X-Axis: Bearing area[%]; Y-Axis: Height [nm]
# length = 100
# offset = 0
# Start of Data:
# x-phys	 y-val
#------------------------------
       0	 1.17701	
0.200401	 1.17465	
0.400802	0.934063	
0.601202	 0.90104	
0.801603	 0.88217	
   1.002	0.863301	
  1.2024	0.851507	
 1.40281	0.842072	
 1.60321	0.832637	
 1.80361	0.823202	
 2.00401	0.818484	
 2.20441	0.811408	
 2.40481	0.806691	
 2.60521	0.801973	
 2.80561	0.797256	
 3.00601	0.792538	
 3.20641	0.787821	
 3.40681	0.783103	
 3.60721	0.780744	
 3.80762	0.776027	
 4.00802	0.773668	
 4.20842	0.768951	
 4.40882	0.766592	
 4.60922	0.764233	
 4.80962	0.761874	
 5.01002	0.757157	
 5.21042	0.754798	
 5.41082	 0.75244	
 5.61122	0.750081	
 5.81162	0.747722	
 6.01202	0.745363	
 6.21242	0.743005	
 6.41283	0.740646	
 6.61323	0.738287	
 6.81363	0.735928	
 7.01403	0.735928	
 7.21443	 0.73357	
 7.41483	0.731211	
 7.61523	0.728852	
 7.81563	0.728852	
 8.01603	0.726493	
 8.21643	0.724135	
 8.41683	0.721776	
 8.61723	0.721776	
 8.81764	0.719417	
 9.01804	0.717058	
 9.21844	0.717058	
 9.41884	  0.7147	
 9.61924	0.712341	
 9.81964	0.712341	
   10.02	0.709982	
 10.2204	0.707623	
 10.4208	0.707623	
 10.6212	0.705265	
 10.8216	0.705265	
  11.022	0.702906	
 11.2224	0.702906	
 11.4228	0.700547	
 11.6232	0.698188	
 11.8236	0.698188	
  12.024	 0.69583	
 12.2244	0.693471	
 12.4248	0.693471	
 12.6253	0.691112	
 12.8257	0.691112	
 13.0261	0.688753	
 13.2265	0.688753	
 13.4269	0.686395	
 13.6273	0.686395	
 13.8277	0.684036	
 14.0281	0.684036	
 14.2285	0.681677	
 14.4289	0.681677	
 14.6293	0.679318	
 14.8297	0.679318	
 15.0301	0.679318	
 15.2305	 0.67696	
 15.4309	 0.67696	
 15.6313	0.674601	
 15.8317	0.674601	
 16.0321	0.672242	
 16.2325	0.672242	
 16.4329	0.669883	
 16.6333	0.669883	
 16.8337	0.669883	
 17.0341	0.667525	
 17.2345	0.667525	
 17.4349	0.665166	
 17.6353	0.665166	
 17.8357	0.662807	
 18.0361	0.662807	
 18.2365	0.662807	
 18.4369	0.660448	
 18.6373	0.660448	
 18.8377	 0.65809	
 19.0381	 0.65809	
 19.2385	0.655731	
 19.4389	0.655731	
 19.6393	0.655731	
 19.8397	0.653372	
 20.0401	0.653372	
 20.2405	0.653372	
 20.4409	0.651013	
 20.6413	0.651013	
 20.8417	0.651013	
 21.0421	0.648655	
 21.2425	0.648655	
 21.4429	0.646296	
 21.6433	0.646296	
 21.8437	0.646296	
 22.0441	0.643937	
 22.2445	0.643937	
 22.4449	0.641579	
 22.6453	0.641579	
 22.8457	0.641579	
 23.0461	 0.63922	
 23.2465	 0.63922	
 23.4469	 0.63922	
 23.6473	0.636861	
 23.8477	0.636861	
 24.0481	0.636861	
 24.2485	0.634502	
 24.4489	0.634502	
 24.6493	0.634502	
 24.8497	0.632144	
 25.0501	0.632144	
 25.2505	0.632144	
 25.4509	0.629785	
 25.6513	0.629785	
 25.8517	0.629785	
 26.0521	0.627426	
 26.2525	0.627426	
 26.4529	0.627426	
 26.6533	0.625067	
 26.8537	0.625067	
 27.0541	0.625067	
 27.2545	0.622709	
 27.4549	0.622709	
 27.6553	0.622709	
 27.8557	 0.62035	
 28.0561	 0.62035	
 28.2565	 0.62035	
 28.4569	0.617991	
 28.6573	0.617991	
 28.8577	0.617991	
 29.0581	0.615632	
 29.2585	0.615632	
 29.4589	0.615632	
 29.6593	0.613274	
 29.8597	0.613274	
 30.0601	0.613274	
 30.2605	0.613274	
 30.4609	0.610915	
 30.6613	0.610915	
 30.8617	0.610915	
 31.0621	0.608556	
 31.2625	0.608556	
 31.4629	0.608556	
 31.6633	0.606197	
 31.8637	0.606197	
 32.0641	0.606197	
 32.2645	0.606197	
 32.4649	0.603839	
 32.6653	0.603839	
 32.8657	0.603839	
 33.0661	 0.60148	
 33.2665	 0.60148	
 33.4669	 0.60148	
 33.6673	 0.60148	
 33.8677	0.599121	
 34.0681	0.599121	
 34.2685	0.599121	
 34.4689	0.596762	
 34.6693	0.596762	
 34.8697	0.596762	
 35.0701	0.596762	
 35.2705	0.594404	
 35.4709	0.594404	
 35.6713	0.594404	
 35.8717	0.592045	
 36.0721	0.592045	
 36.2725	0.592045	
 36.4729	0.589686	
 36.6733	0.589686	
 36.8737	0.589686	
 37.0741	0.589686	
 37.2745	0.587327	
 37.4749	0.587327	
 37.6754	0.587327	
 37.8758	0.584969	
 38.0762	0.584969	
 38.2766	0.584969	
  38.477	0.584969	
 38.6774	 0.58261	
 38.8778	 0.58261	
 39.0782	 0.58261	
 39.2786	0.580251	
  39.479	0.580251	
 39.6794	0.580251	
 39.8798	0.580251	
 40.0802	0.577892	
 40.2806	0.577892	
  40.481	0.577892	
 40.6814	0.577892	
 40.8818	0.575534	
 41.0822	0.575534	
 41.2826	0.575534	
  41.483	0.575534	
 41.6834	0.573175	
 41.8838	0.573175	
 42.0842	0.573175	
 42.2846	0.570816	
  42.485	0.570816	
 42.6854	0.570816	
 42.8858	0.570816	
 43.0862	0.568457	
 43.2866	0.568457	
  43.487	0.568457	
 43.6874	0.568457	
 43.8878	0.566099	
 44.0882	0.566099	
 44.2886	0.566099	
  44.489	 0.56374	
 44.6894	 0.56374	
 44.8898	 0.56374	
 45.0902	 0.56374	
 45.2906	0.561381	
  45.491	0.561381	
 45.6914	0.561381	
 45.8918	0.561381	
 46.0922	0.559022	
 46.2926	0.559022	
  46.493	0.559022	
 46.6934	0.559022	
 46.8938	0.556664	
 47.0942	0.556664	
 47.2946	0.556664	
  47.495	0.556664	
 47.6954	0.554305	
 47.8958	0.554305	
 48.0962	0.554305	
 48.2966	0.554305	
  48.497	0.551946	
 48.6974	0.551946	
 48.8978	0.551946	
 49.0982	0.549587	
 49.2986	0.549587	
  49.499	0.549587	
 49.6994	0.549587	
 49.8998	0.547229	
 50.1002	0.547229	
 50.3006	0.547229	
  50.501	0.547229	
 50.7014	 0.54487	
 50.9018	 0.54487	
 51.1022	 0.54487	
 51.3026	 0.54487	
  51.503	0.542511	
 51.7034	0.542511	
 51.9038	0.542511	
 52.1042	0.542511	
 52.3046	0.540153	
  52.505	0.540153	
 52.7054	0.540153	
 52.9058	0.537794	
 53.1062	0.537794	
 53.3066	0.537794	
  53.507	0.537794	
 53.7074	0.535435	
 53.9078	0.535435	
 54.1082	0.535435	
 54.3086	0.535435	
  54.509	0.533076	
 54.7094	0.533076	
 54.9098	0.533076	
 55.1102	0.533076	
 55.3106	0.530718	
  55.511	0.530718	
 55.7114	0.530718	
 55.9118	0.530718	
 56.1122	0.528359	
 56.3126	0.528359	
  56.513	0.528359	
 56.7134	   0.526	
 56.9138	   0.526	
 57.1142	   0.526	
 57.3146	   0.526	
  57.515	0.523641	
 57.7154	0.523641	
 57.9158	0.523641	
 58.1162	0.523641	
 58.3166	0.521283	
  58.517	0.521283	
 58.7174	0.521283	
 58.9178	0.521283	
 59.1182	0.518924	
 59.3186	0.518924	
  59.519	0.518924	
 59.7194	0.518924	
 59.9198	0.516565	
 60.1202	0.516565	
 60.3206	0.516565	
  60.521	0.516565	
 60.7214	0.514206	
 60.9218	0.514206	
 61.1222	0.514206	
 61.3226	0.514206	
  61.523	0.511848	
 61.7234	0.511848	
 61.9238	0.511848	
 62.1242	0.509489	
 62.3246	0.509489	
 62.5251	0.509489	
 62.7255	0.509489	
 62.9259	 0.50713	
 63.1263	 0.50713	
 63.3267	 0.50713	
 63.5271	0.504771	
 63.7275	0.504771	
 63.9279	0.504771	
 64.1283	0.504771	
 64.3287	0.502413	
 64.5291	0.502413	
 64.7295	0.502413	
 64.9299	0.502413	
 65.1303	0.500054	
 65.3307	0.500054	
 65.5311	0.500054	
 65.7315	0.500054	
 65.9319	0.497695	
 66.1323	0.497695	
 66.3327	0.497695	
 66.5331	0.495336	
 66.7335	0.495336	
 66.9339	0.495336	
 67.1343	0.495336	
 67.3347	0.492978	
 67.5351	0.492978	
 67.7355	0.492978	
 67.9359	0.490619	
 68.1363	0.490619	
 68.3367	0.490619	
 68.5371	0.490619	
 68.7375	 0.48826	
 68.9379	 0.48826	
 69.1383	 0.48826	
 69.3387	0.485901	
 69.5391	0.485901	
 69.7395	0.485901	
 69.9399	0.485901	
 70.1403	0.483543	
 70.3407	0.483543	
 70.5411	0.483543	
 70.7415	0.481184	
 70.9419	0.481184	
 71.1423	0.481184	
 71.3427	0.478825	
 71.5431	0.478825	
 71.7435	0.478825	
 71.9439	0.478825	
 72.1443	0.476466	
 72.3447	0.476466	
 72.5451	0.476466	
 72.7455	0.474108	
 72.9459	0.474108	
 73.1463	0.474108	
 73.3467	0.471749	
 73.5471	0.471749	
 73.7475	0.471749	
 73.9479	 0.46939	
 74.1483	 0.46939	
 74.3487	 0.46939	
 74.5491	 0.46939	
 74.7495	0.467031	
 74.9499	0.467031	
 75.1503	0.467031	
 75.3507	0.464673	
 75.5511	0.464673	
 75.7515	0.464673	
 75.9519	0.462314	
 76.1523	0.462314	
 76.3527	0.462314	
 76.5531	0.462314	
 76.7535	0.459955	
 76.9539	0.459955	
 77.1543	0.459955	
 77.3547	0.457596	
 77.5551	0.457596	
 77.7555	0.457596	
 77.9559	0.455238	
 78.1563	0.455238	
 78.3567	0.455238	
 78.5571	0.452879	
 78.7575	0.452879	
 78.9579	0.452879	
 79.1583	 0.45052	
 79.3587	 0.45052	
 79.5591	 0.45052	
 79.7595	0.448161	
 79.9599	0.448161	
 80.1603	0.445803	
 80.3607	0.445803	
 80.5611	0.445803	
 80.7615	0.443444	
 80.9619	0.443444	
 81.1623	0.443444	
 81.3627	0.441085	
 81.5631	0.441085	
 81.7635	0.441085	
 81.9639	0.438727	
 82.1643	0.438727	
 82.3647	0.438727	
 82.5651	0.436368	
 82.7655	0.436368	
 82.9659	0.434009	
 83.1663	0.434009	
 83.3667	0.434009	
 83.5671	 0.43165	
 83.7675	 0.43165	
 83.9679	 0.43165	
 84.1683	0.429292	
 84.3687	0.429292	
 84.5691	0.426933	
 84.7695	0.426933	
 84.9699	0.426933	
 85.1703	0.424574	
 85.3707	0.424574	
 85.5711	0.422215	
 85.7715	0.422215	
 85.9719	0.419857	
 86.1723	0.419857	
 86.3727	0.417498	
 86.5731	0.417498	
 86.7735	0.415139	
 86.9739	0.415139	
 87.1743	0.415139	
 87.3747	 0.41278	
 87.5752	 0.41278	
 87.7756	0.410422	
  87.976	0.410422	
 88.1764	0.408063	
 88.3768	0.408063	
 88.5772	0.405704	
 88.7776	0.405704	
  88.978	0.403345	
 89.1784	0.403345	
 89.3788	0.400987	
 89.5792	0.400987	
 89.7796	0.398628	
   89.98	0.398628	
 90.1804	0.396269	
 90.3808	0.396269	
 90.5812	 0.39391	
 90.7816	0.391552	
  90.982	0.391552	
 91.1824	0.389193	
 91.3828	0.389193	
 91.5832	0.386834	
 91.7836	0.386834	
  91.984	0.384475	
 92.1844	0.382117	
 92.3848	0.382117	
 92.5852	0.379758	
 92.7856	0.377399	
  92.986	0.377399	
 93.1864	 0.37504	
 93.3868	0.372682	
 93.5872	0.370323	
 93.7876	0.370323	
  93.988	0.367964	
 94.1884	0.365605	
 94.3888	0.363247	
 94.5892	0.360888	
 94.7896	0.358529	
   94.99	 0.35617	
 95.1904	0.353812	
 95.3908	0.351453	
 95.5912	0.349094	
 95.7916	0.346735	
  95.992	0.344377	
 96.1924	0.342018	
 96.3928	0.339659	
 96.5932	  0.3373	
 96.7936	0.332583	
  96.994	0.330224	
 97.1944	0.325507	
 97.3948	0.320789	
 97.5952	0.318431	
 97.7956	0.313713	
  97.996	0.308996	
 98.1964	0.304278	
 98.3968	0.299561	
 98.5972	0.292484	
 98.7976	0.285408	
  98.998	0.275973	
 99.1984	0.264179	
 99.3988	0.252386	
 99.5992	0.235874	
 99.7996	0.214646	
     100	       0	
